Comment  : 
Probe    : 
CfgTyp   : $623
Fileform : $BF
Date     : 20.05.2007  13:21:32
Program  : EMP/2
Version  : 00.77
MeasTyp  : CFS
Analys.  : 1
Scans    : 1
Points   : 196
MonSta   :  2.700000000E+02
MonEnd   :  4.650000000E+02
AnaSta   :  2.000000000E+02
AnaEnd   :  6.000000000E+02
AnaRange :  1.000000000E+04
AnaMin   :  0.000000000E+00
DacSta   :  0.000000000E+00
DacEnd   :  1.000000000E+01
DeltaE   :  0.000000000E+00
MonName  : TGM1
MonType  : 1
MonUnit  : Step/S
MonSpeed :  5.000000000E+02
MonRewind:  0.000000000E+00
MonSweep :  2.000000000E+00
IdPos    :  0.000000000E+00
IdMode   : 0
LiveTime :  0.000000000E+00
DeadTime :  8.000000000E-03
MeasTime :  8.135800000E+02
ScanTime :  8.134840790E+02
ScanCtrl : ENERGY
DelayVal :  0.000000000E+00
SecMeas  : FALSE
XMonFile : 
XAnaFile : 
P_TakeUp : FALSE
ChanOrder: 1,2
Devices  : NAME=KEITHLEY@2,TIME= 3.00000E-02,MODE=1,RANGE=0,AVERAGE=0,TRIGGER=1,OPEN=256,UNIT=a.U.
           NAME=Ringstrom,TIME= 0.00000E+00,MODE=1,RANGE=1,AVERAGE=0,TRIGGER=1,OPEN=0,UNIT=a.U.
Display  : COLOR=$F80800,TYPE=19,LINE=0,POINT=0,WINNR=4,NAME=
           COLOR=$008000,TYPE=19,LINE=0,POINT=0,WINNR=2,NAME=
Arithm.  : OFFS= 0.000000000E+00,OFFS2= 0.000000000E+00,FUNC=$0,FINR=$0,VAL1=$0,VAL2=$0,OPER=$0,BITS=$0,NAME=STDMATH
           OFFS= 0.000000000E+00,OFFS2= 0.000000000E+00,FUNC=$0,FINR=$0,VAL1=$0,VAL2=$0,OPER=$0,BITS=$0,NAME=STDMATH
DATAVALUE:
BEGIN
 2.7000000E+02  2.110541E-12  1.705158E+02
 2.7100000E+02  2.129100E-12  1.705030E+02
 2.7200000E+02  2.106552E-12  1.704903E+02
 2.7300000E+02  2.140431E-12  1.704709E+02
 2.7400000E+02  2.180447E-12  1.704589E+02
 2.7500000E+02  2.066001E-12  1.704460E+02
 2.7600000E+02  2.118078E-12  1.704332E+02
 2.7700000E+02  2.085968E-12  1.704172E+02
 2.7800000E+02  2.109148E-12  1.704017E+02
 2.7900000E+02  2.081834E-12  1.703880E+02
 2.8000000E+02  2.123647E-12  1.703730E+02
 2.8100000E+02  2.104996E-12  1.703607E+02
 2.8200000E+02  2.194115E-12  1.703478E+02
 2.8300000E+02  2.723440E-12  1.703328E+02
 2.8400000E+02  4.451553E-11  1.703212E+02
 2.8500000E+02  4.297804E-11  1.702966E+02
 2.8600000E+02  2.825565E-11  1.702814E+02
 2.8700000E+02  2.827089E-11  1.702698E+02
 2.8800000E+02  2.773174E-11  1.702530E+02
 2.8900000E+02  2.620707E-11  1.702400E+02
 2.9000000E+02  2.625577E-11  1.702275E+02
 2.9100000E+02  3.471136E-11  1.702126E+02
 2.9200000E+02  3.491686E-11  1.701969E+02
 2.9300000E+02  3.401618E-11  1.701857E+02
 2.9400000E+02  3.361502E-11  1.701742E+02
 2.9500000E+02  3.140888E-11  1.701548E+02
 2.9600000E+02  2.860375E-11  1.701421E+02
 2.9700000E+02  2.656451E-11  1.701299E+02
 2.9800000E+02  2.560450E-11  1.701174E+02
 2.9900000E+02  2.498170E-11  1.701029E+02
 3.0000000E+02  2.524058E-11  1.700891E+02
 3.0100000E+02  2.613876E-11  1.700729E+02
 3.0200000E+02  2.829608E-11  1.700624E+02
 3.0300000E+02  2.988514E-11  1.700475E+02
 3.0400000E+02  2.993730E-11  1.700355E+02
 3.0500000E+02  3.065306E-11  1.700180E+02
 3.0600000E+02  3.319764E-11  1.700023E+02
 3.0700000E+02  3.494840E-11  1.699891E+02
 3.0800000E+02  3.468365E-11  1.699751E+02
 3.0900000E+02  3.328587E-11  1.699636E+02
 3.1000000E+02  3.178707E-11  1.699531E+02
 3.1100000E+02  2.994939E-11  1.699402E+02
 3.1200000E+02  2.897528E-11  1.699254E+02
 3.1300000E+02  2.951053E-11  1.699110E+02
 3.1400000E+02  3.076334E-11  1.698963E+02
 3.1500000E+02  3.160170E-11  1.698811E+02
 3.1600000E+02  3.131435E-11  1.698694E+02
 3.1700000E+02  3.015030E-11  1.698569E+02
 3.1800000E+02  2.913112E-11  1.698458E+02
 3.1900000E+02  2.874716E-11  1.698312E+02
 3.2000000E+02  2.882462E-11  1.698192E+02
 3.2100000E+02  2.890200E-11  1.698029E+02
 3.2200000E+02  2.902095E-11  1.697915E+02
 3.2300000E+02  2.931816E-11  1.697776E+02
 3.2400000E+02  2.977495E-11  1.697646E+02
 3.2500000E+02  3.030818E-11  1.697495E+02
 3.2600000E+02  3.084652E-11  1.697377E+02
 3.2700000E+02  3.121240E-11  1.697229E+02
 3.2800000E+02  3.177346E-11  1.697099E+02
 3.2900000E+02  3.226264E-11  1.696998E+02
 3.3000000E+02  3.268577E-11  1.696879E+02
 3.3100000E+02  3.298658E-11  1.696769E+02
 3.3200000E+02  3.300536E-11  1.696593E+02
 3.3300000E+02  3.279083E-11  1.696478E+02
 3.3400000E+02  3.253437E-11  1.696356E+02
 3.3500000E+02  3.216662E-11  1.696256E+02
 3.3600000E+02  3.169645E-11  1.696099E+02
 3.3700000E+02  3.141109E-11  1.695986E+02
 3.3800000E+02  3.121928E-11  1.695846E+02
 3.3900000E+02  3.098452E-11  1.695720E+02
 3.4000000E+02  3.095014E-11  1.695600E+02
 3.4100000E+02  3.075705E-11  1.695486E+02
 3.4200000E+02  3.063193E-11  1.695371E+02
 3.4300000E+02  3.039872E-11  1.695247E+02
 3.4400000E+02  3.037656E-11  1.695124E+02
 3.4500000E+02  3.041548E-11  1.694994E+02
 3.4600000E+02  3.034255E-11  1.694836E+02
 3.4700000E+02  2.989496E-11  1.694728E+02
 3.4800000E+02  2.553054E-11  1.694587E+02
 3.4900000E+02  3.109051E-11  1.694472E+02
 3.5000000E+02  3.047985E-11  1.694349E+02
 3.5100000E+02  2.824453E-11  1.694228E+02
 3.5200000E+02  3.114054E-11  1.694113E+02
 3.5300000E+02  3.199151E-11  1.694041E+02
 3.5400000E+02  3.238017E-11  1.693887E+02
 3.5500000E+02  3.287859E-11  1.693763E+02
 3.5600000E+02  3.325133E-11  1.693626E+02
 3.5700000E+02  3.372400E-11  1.693500E+02
 3.5800000E+02  3.402469E-11  1.693374E+02
 3.5900000E+02  3.434421E-11  1.693252E+02
 3.6000000E+02  3.454792E-11  1.693112E+02
 3.6100000E+02  3.484859E-11  1.693003E+02
 3.6200000E+02  3.498005E-11  1.692878E+02
 3.6300000E+02  3.513364E-11  1.692754E+02
 3.6400000E+02  3.523725E-11  1.692641E+02
 3.6500000E+02  3.522918E-11  1.692494E+02
 3.6600000E+02  3.529713E-11  1.692384E+02
 3.6700000E+02  3.533075E-11  1.692264E+02
 3.6800000E+02  3.541019E-11  1.692185E+02
 3.6900000E+02  3.542800E-11  1.692040E+02
 3.7000000E+02  3.556818E-11  1.691925E+02
 3.7100000E+02  3.548408E-11  1.691837E+02
 3.7200000E+02  3.558385E-11  1.691678E+02
 3.7300000E+02  3.564673E-11  1.691542E+02
 3.7400000E+02  3.555170E-11  1.691408E+02
 3.7500000E+02  3.551983E-11  1.691289E+02
 3.7600000E+02  3.563883E-11  1.691172E+02
 3.7700000E+02  3.585680E-11  1.691062E+02
 3.7800000E+02  3.601337E-11  1.690951E+02
 3.7900000E+02  3.617519E-11  1.690836E+02
 3.8000000E+02  3.650788E-11  1.690744E+02
 3.8100000E+02  3.676515E-11  1.690608E+02
 3.8200000E+02  3.710996E-11  1.690484E+02
 3.8300000E+02  3.744825E-11  1.690355E+02
 3.8400000E+02  3.776635E-11  1.690230E+02
 3.8500000E+02  3.813453E-11  1.690108E+02
 3.8600000E+02  3.830858E-11  1.689999E+02
 3.8700000E+02  3.850820E-11  1.689867E+02
 3.8800000E+02  3.862454E-11  1.689789E+02
 3.8900000E+02  3.867193E-11  1.689649E+02
 3.9000000E+02  3.873659E-11  1.689532E+02
 3.9100000E+02  3.864873E-11  1.689451E+02
 3.9200000E+02  3.860628E-11  1.689317E+02
 3.9300000E+02  3.848103E-11  1.689186E+02
 3.9400000E+02  3.854813E-11  1.689086E+02
 3.9500000E+02  3.831414E-11  1.688989E+02
 3.9600000E+02  3.808369E-11  1.688872E+02
 3.9700000E+02  3.808127E-11  1.688742E+02
 3.9800000E+02  3.781653E-11  1.688638E+02
 3.9900000E+02  3.781768E-11  1.688511E+02
 4.0000000E+02  3.820238E-11  1.688360E+02
 4.0100000E+02  3.855513E-11  1.688236E+02
 4.0200000E+02  3.839066E-11  1.688137E+02
 4.0300000E+02  3.836712E-11  1.688004E+02
 4.0400000E+02  3.850940E-11  1.687935E+02
 4.0500000E+02  3.868729E-11  1.687795E+02
 4.0600000E+02  3.882715E-11  1.687704E+02
 4.0700000E+02  3.896185E-11  1.687586E+02
 4.0800000E+02  3.904962E-11  1.687487E+02
 4.0900000E+02  3.920111E-11  1.687367E+02
 4.1000000E+02  3.924942E-11  1.687244E+02
 4.1100000E+02  3.934241E-11  1.687106E+02
 4.1200000E+02  3.920252E-11  1.686986E+02
 4.1300000E+02  3.915513E-11  1.686902E+02
 4.1400000E+02  3.914012E-11  1.686793E+02
 4.1500000E+02  3.902432E-11  1.686662E+02
 4.1600000E+02  3.908834E-11  1.686536E+02
 4.1700000E+02  3.891112E-11  1.686437E+02
 4.1800000E+02  3.884956E-11  1.686341E+02
 4.1900000E+02  3.887521E-11  1.686182E+02
 4.2000000E+02  3.869747E-11  1.686063E+02
 4.2100000E+02  3.867594E-11  1.685994E+02
 4.2200000E+02  3.867907E-11  1.685871E+02
 4.2300000E+02  3.856350E-11  1.685778E+02
 4.2400000E+02  3.847440E-11  1.685684E+02
 4.2500000E+02  3.845022E-11  1.685556E+02
 4.2600000E+02  3.853672E-11  1.685438E+02
 4.2700000E+02  3.858116E-11  1.685276E+02
 4.2800000E+02  3.852615E-11  1.685204E+02
 4.2900000E+02  3.865147E-11  1.685094E+02
 4.3000000E+02  3.882420E-11  1.684971E+02
 4.3100000E+02  3.896103E-11  1.684889E+02
 4.3200000E+02  3.907082E-11  1.684762E+02
 4.3300000E+02  3.911109E-11  1.684646E+02
 4.3400000E+02  3.913252E-11  1.684559E+02
 4.3500000E+02  3.918088E-11  1.684449E+02
 4.3600000E+02  3.927442E-11  1.684347E+02
 4.3700000E+02  3.934316E-11  1.684291E+02
 4.3800000E+02  3.933319E-11  1.684131E+02
 4.3900000E+02  3.924315E-11  1.684044E+02
 4.4000000E+02  3.927586E-11  1.683936E+02
 4.4100000E+02  3.917412E-11  1.683769E+02
 4.4200000E+02  3.912597E-11  1.683663E+02
 4.4300000E+02  3.911132E-11  1.683574E+02
 4.4400000E+02  3.900840E-11  1.683459E+02
 4.4500000E+02  3.880439E-11  1.683378E+02
 4.4600000E+02  3.862073E-11  1.683254E+02
 4.4700000E+02  3.837960E-11  1.683171E+02
 4.4800000E+02  3.803001E-11  1.683021E+02
 4.4900000E+02  3.754094E-11  1.682955E+02
 4.5000000E+02  3.652391E-11  1.682826E+02
 4.5100000E+02  3.440362E-11  1.682743E+02
 4.5200000E+02  2.103568E-11  1.682648E+02
 4.5300000E+02  1.947757E-12  1.682543E+02
 4.5400000E+02  4.577161E-13  1.682330E+02
 4.5500000E+02  3.096572E-13  1.682205E+02
 4.5600000E+02  3.044488E-13  1.682108E+02
 4.5700000E+02  3.962259E-13  1.682018E+02
 4.5800000E+02  5.719921E-13  1.681897E+02
 4.5900000E+02  2.603341E-13  1.681833E+02
 4.6000000E+02  1.902828E-13  1.681723E+02
 4.6100000E+02  2.138750E-13  1.681618E+02
 4.6200000E+02  2.209920E-13  1.681535E+02
 4.6300000E+02  2.236563E-13  1.681398E+02
 4.6400000E+02  3.650667E-13  1.681303E+02
 4.6500000E+02  5.021069E-13  1.681175E+02
END
